# t SFR(t) (Msol/yr) l90_SFR u90_SFR
        1e+06    0.0177857  1.39009e-41      98.5595
        2e+06    0.0180018  1.53008e-41      98.6346
        3e+06    0.0182298  1.69095e-41       98.713
        4e+06    0.0184608  1.86891e-41      98.7915
        5e+06    0.0186947  2.06537e-41        98.87
        6e+06    0.0189315  2.28258e-41      98.9485
        7e+06    0.0191713  2.52262e-41      99.0272
        8e+06    0.0194142  2.78802e-41      99.1058
        9e+06    0.0196602  3.08118e-41      99.1846
        1e+07    0.0199092   3.4053e-41      99.2634
      1.1e+07    0.0201615  3.76347e-41      99.3423
      1.2e+07    0.0204169  4.15919e-41      99.4212
      1.3e+07    0.0206755  4.59668e-41      99.5002
      1.4e+07    0.0209375  5.08013e-41      99.5793
      1.5e+07    0.0212027   5.6143e-41      99.6584
      1.6e+07    0.0214714  6.20481e-41      99.7376
      1.7e+07    0.0217434  6.85739e-41      99.8169
      1.8e+07    0.0220188   7.5785e-41      99.8962
      1.9e+07    0.0222978  8.37556e-41      99.9756
        2e+07    0.0225803  9.25642e-41      100.055
      2.1e+07    0.0228663    1.023e-40      100.135
      2.2e+07     0.023156   1.1306e-40      100.214
      2.3e+07    0.0234494   1.2495e-40      100.294
      2.4e+07    0.0237465  1.38091e-40      100.373
      2.5e+07    0.0240473  1.52614e-40      100.453
      2.6e+07     0.024352  1.68664e-40      100.533
      2.7e+07    0.0246605  1.86402e-40      100.613
      2.8e+07    0.0249729  2.06006e-40      100.693
      2.9e+07    0.0252893  2.27673e-40      100.773
        3e+07    0.0256096  2.51617e-40      100.853
      3.1e+07    0.0259341  2.78081e-40      100.933
      3.2e+07    0.0262626  3.07326e-40      101.013
      3.3e+07    0.0265954  3.39648e-40      101.094
      3.4e+07    0.0269323  3.75369e-40      101.174
      3.5e+07    0.0272735  4.14847e-40      101.254
      3.6e+07     0.027619  4.58477e-40      101.335
      3.7e+07    0.0279689  5.06696e-40      101.415
      3.8e+07    0.0283233  5.59984e-40      101.496
      3.9e+07    0.0286821  6.18879e-40      101.577
        4e+07    0.0290454  6.83967e-40      101.657
      4.1e+07    0.0294134    7.559e-40      101.738
      4.2e+07     0.029786  8.35398e-40      101.819
      4.3e+07    0.0301634  9.23258e-40        101.9
      4.4e+07    0.0305455  1.02036e-39      101.981
      4.5e+07    0.0309325  1.12767e-39      102.062
      4.6e+07    0.0313244  1.24627e-39      102.143
      4.7e+07    0.0317212  1.37734e-39      102.224
      4.8e+07    0.0321231   1.5222e-39      102.305
      4.9e+07    0.0325301  1.68229e-39      102.387
        5e+07    0.0329422  1.85921e-39      102.468
      5.1e+07    0.0333595  2.05475e-39      102.549
      5.2e+07    0.0337822  2.27085e-39      102.631
      5.3e+07    0.0342101  2.50968e-39      102.712
      5.4e+07    0.0346435  2.77362e-39      102.794
      5.5e+07    0.0350824  3.06533e-39      102.876
      5.6e+07    0.0355269  3.38771e-39      102.957
      5.7e+07     0.035977    3.744e-39      103.039
      5.8e+07    0.0364328  4.13776e-39      103.121
      5.9e+07    0.0368943  4.57293e-39      103.203
        6e+07    0.0373617  5.05387e-39      103.285
      6.1e+07    0.0378351  5.58539e-39      103.367
      6.2e+07    0.0383144  6.17281e-39      103.449
      6.3e+07    0.0387998  6.82201e-39      103.532
      6.4e+07    0.0392913  7.53949e-39      103.614
      6.5e+07    0.0397891  8.33242e-39      103.696
      6.6e+07    0.0402932  9.20875e-39      103.779
      6.7e+07    0.0408036  1.01772e-38      103.861
      6.8e+07    0.0413206  1.12476e-38      103.944
      6.9e+07    0.0418441  1.24305e-38      104.026
        7e+07    0.0423742  1.37378e-38      104.109
      7.1e+07     0.042911  1.51827e-38      104.192
      7.2e+07    0.0434546  1.67794e-38      104.274
      7.3e+07    0.0440052  1.85441e-38      104.357
      7.4e+07    0.0445627  2.04944e-38       104.44
      7.5e+07    0.0451272  2.26499e-38      104.523
      7.6e+07    0.0456989   2.5032e-38      104.606
      7.7e+07    0.0462779  2.76646e-38      104.689
      7.8e+07    0.0468642  3.05741e-38      104.772
      7.9e+07    0.0474579  3.37896e-38      104.856
        8e+07    0.0480591  3.73433e-38      104.939
      8.1e+07     0.048668  4.12707e-38      105.022
      8.2e+07    0.0492845  4.56112e-38      105.106
      8.3e+07    0.0499089  5.04082e-38      105.189
      8.4e+07    0.0505412  5.57097e-38      105.273
      8.5e+07    0.0511815  6.15687e-38      105.357
      8.6e+07    0.0518299   6.8044e-38       105.44
      8.7e+07    0.0524865  7.52002e-38      105.524
      8.8e+07    0.0531515  8.31091e-38      105.608
      8.9e+07    0.0538248  9.18497e-38      105.692
        9e+07    0.0545067   1.0151e-37      105.776
      9.1e+07    0.0551973  1.12186e-37       105.86
      9.2e+07    0.0558966  1.23984e-37      105.944
      9.3e+07    0.0566047  1.37024e-37      106.028
      9.4e+07    0.0573218  1.51435e-37      106.113
      9.5e+07     0.058048  1.67361e-37      106.197
      9.6e+07    0.0587834  1.84963e-37      106.281
      9.7e+07    0.0595281  2.04415e-37      106.366
      9.8e+07    0.0602823  2.25914e-37       106.45
      9.9e+07     0.061046  2.49673e-37      106.535
        1e+08    0.0618194  2.75932e-37       106.62
     1.01e+08    0.0626025  3.04952e-37      106.704
     1.02e+08    0.0633956  3.37024e-37      106.789
     1.03e+08    0.0641988  3.72469e-37      106.874
     1.04e+08    0.0650121  4.11642e-37      106.959
     1.05e+08    0.0658357  4.54935e-37      107.044
     1.06e+08    0.0666698  5.02781e-37      107.129
     1.07e+08    0.0675144  5.55659e-37      107.214
     1.08e+08    0.0683698  6.14098e-37      107.299
     1.09e+08    0.0692359  6.78683e-37      107.384
      1.1e+08    0.0701131  7.50061e-37       107.47
     1.11e+08    0.0710013  8.28945e-37      107.555
     1.12e+08    0.0719008  9.16126e-37      107.641
     1.13e+08    0.0728117  1.01248e-36      107.726
     1.14e+08    0.0737342  1.11896e-36      107.812
     1.15e+08    0.0746683  1.23664e-36      107.897
     1.16e+08    0.0756142   1.3667e-36      107.983
     1.17e+08    0.0765722  1.51044e-36      108.069
     1.18e+08    0.0775423  1.66929e-36      108.155
     1.19e+08    0.0785246  1.84485e-36      108.241
      1.2e+08    0.0795195  2.03888e-36      108.327
     1.21e+08    0.0805269  2.25331e-36      108.413
     1.22e+08    0.0815471  2.49029e-36      108.499
     1.23e+08    0.0825802  2.75219e-36      108.585
     1.24e+08    0.0836264  3.04165e-36      108.672
     1.25e+08    0.0846858  3.36154e-36      108.758
     1.26e+08    0.0857587  3.71507e-36      108.844
     1.27e+08    0.0868451  4.10579e-36      108.931
     1.28e+08    0.0879454   4.5376e-36      109.017
     1.29e+08    0.0890595  5.01483e-36      109.104
      1.3e+08    0.0901878  5.54224e-36      109.191
     1.31e+08    0.0913304  6.12512e-36      109.278
     1.32e+08    0.0924874  6.76931e-36      109.364
     1.33e+08    0.0936591  7.48124e-36      109.451
     1.34e+08    0.0948457  8.26805e-36      109.538
     1.35e+08    0.0960473  9.13761e-36      109.625
     1.36e+08    0.0972641  1.00986e-35      109.712
     1.37e+08    0.0984963  1.11607e-35        109.8
     1.38e+08    0.0997441  1.23345e-35      109.887
     1.39e+08     0.101008  1.36317e-35      109.974
      1.4e+08     0.102287  1.50654e-35      110.062
     1.41e+08     0.103583  1.66498e-35      110.149
     1.42e+08     0.104896  1.84009e-35      110.237
     1.43e+08     0.106224  2.03361e-35      110.324
     1.44e+08      0.10757  2.24749e-35      110.412
     1.45e+08     0.108933  2.48386e-35        110.5
     1.46e+08     0.110313  2.74509e-35      110.587
     1.47e+08     0.111711  3.03379e-35      110.675
     1.48e+08     0.113126  3.35286e-35      110.763
     1.49e+08     0.114559  3.70548e-35      110.851
      1.5e+08      0.11601  4.09519e-35      110.939
     1.51e+08      0.11748  4.52589e-35      111.027
     1.52e+08     0.118968  5.00188e-35      111.116
     1.53e+08     0.120476  5.52793e-35      111.204
     1.54e+08     0.122002  6.10931e-35      111.292
     1.55e+08     0.123547  6.75183e-35      111.381
     1.56e+08     0.125113  7.46193e-35      111.469
     1.57e+08     0.126698   8.2467e-35      111.558
     1.58e+08     0.128303  9.11402e-35      111.646
     1.59e+08     0.129928  1.00725e-34      111.735
      1.6e+08     0.131574  1.11319e-34      111.824
     1.61e+08     0.133241  1.23026e-34      111.913
     1.62e+08     0.134929  1.35965e-34      112.002
     1.63e+08     0.136639  1.50265e-34      112.091
     1.64e+08      0.13837  1.66068e-34       112.18
     1.65e+08     0.140123  1.83534e-34      112.269
     1.66e+08     0.141898  2.02836e-34      112.358
     1.67e+08     0.143696  2.24169e-34      112.448
     1.68e+08     0.145516  2.47745e-34      112.537
     1.69e+08     0.147359    2.738e-34      112.626
      1.7e+08     0.149226  3.02596e-34      112.716
     1.71e+08     0.151117   3.3442e-34      112.805
     1.72e+08     0.153031  3.69592e-34      112.895
     1.73e+08      0.15497  4.08462e-34      112.985
     1.74e+08     0.156933   4.5142e-34      113.074
     1.75e+08     0.158922  4.98896e-34      113.164
     1.76e+08     0.160935  5.51366e-34      113.254
     1.77e+08     0.162974  6.09354e-34      113.344
     1.78e+08     0.165038   6.7344e-34      113.434
     1.79e+08     0.167129  7.44266e-34      113.524
      1.8e+08     0.169247  8.22541e-34      113.615
     1.81e+08     0.171391  9.09049e-34      113.705
     1.82e+08     0.173562  1.00465e-33      113.795
     1.83e+08     0.175761  1.11031e-33      113.886
     1.84e+08     0.177988  1.22709e-33      113.976
     1.85e+08     0.180242  1.35614e-33      114.067
     1.86e+08     0.182526  1.49877e-33      114.157
     1.87e+08     0.184838  1.65639e-33      114.248
     1.88e+08      0.18718   1.8306e-33      114.339
     1.89e+08     0.189551  2.02312e-33       114.43
      1.9e+08     0.191953   2.2359e-33      114.521
     1.91e+08     0.194385  2.47105e-33      114.612
     1.92e+08     0.196847  2.73093e-33      114.703
     1.93e+08     0.199341  3.01815e-33      114.794
     1.94e+08     0.201866  3.33557e-33      114.885
     1.95e+08     0.204424  3.68637e-33      114.976
     1.96e+08     0.207014  4.07407e-33      115.068
     1.97e+08     0.209636  4.50255e-33      115.159
     1.98e+08     0.212292  4.97608e-33      115.251
     1.99e+08     0.214982  5.49942e-33      115.342
        2e+08     0.217705   6.0778e-33      115.434
     2.01e+08     0.220463  6.71701e-33      115.526
     2.02e+08     0.223256  7.42345e-33      115.618
     2.03e+08     0.226085  8.20418e-33      115.709
     2.04e+08     0.228949  9.06702e-33      115.801
     2.05e+08     0.231849  1.00206e-32      115.893
     2.06e+08     0.234787  1.10745e-32      115.986
     2.07e+08     0.237761  1.22392e-32      116.078
     2.08e+08     0.240773  1.35264e-32       116.17
     2.09e+08     0.243824   1.4949e-32      116.262
      2.1e+08     0.246913  1.65212e-32      116.355
     2.11e+08     0.250041  1.82587e-32      116.447
     2.12e+08     0.253208   2.0179e-32       116.54
     2.13e+08     0.256416  2.23013e-32      116.632
     2.14e+08     0.259665  2.46467e-32      116.725
     2.15e+08     0.262954  2.72388e-32      116.818
     2.16e+08     0.266286  3.01036e-32       116.91
     2.17e+08     0.269659  3.32696e-32      117.003
     2.18e+08     0.273076  3.67686e-32      117.096
     2.19e+08     0.276535  4.06356e-32      117.189
      2.2e+08     0.280038  4.49092e-32      117.283
     2.21e+08     0.283586  4.96324e-32      117.376
     2.22e+08     0.287179  5.48523e-32      117.469
     2.23e+08     0.290817  6.06211e-32      117.562
     2.24e+08     0.294501  6.69967e-32      117.656
     2.25e+08     0.298232  7.40428e-32      117.749
     2.26e+08     0.302011    8.183e-32      117.843
     2.27e+08     0.305837  9.04361e-32      117.936
     2.28e+08     0.309711  9.99473e-32       118.03
     2.29e+08     0.313635  1.10459e-31      118.124
      2.3e+08     0.317608  1.22076e-31      118.218
     2.31e+08     0.321632  1.34915e-31      118.312
     2.32e+08     0.325707  1.49104e-31      118.406
     2.33e+08     0.329833  1.64785e-31        118.5
     2.34e+08     0.334012  1.82116e-31      118.594
     2.35e+08     0.338243  2.01269e-31      118.688
     2.36e+08     0.342528  2.22437e-31      118.783
     2.37e+08     0.346868  2.45831e-31      118.877
     2.38e+08     0.351262  2.71685e-31      118.971
     2.39e+08     0.355712  3.00258e-31      119.066
      2.4e+08     0.360219  3.31837e-31      119.161
     2.41e+08     0.364782  3.66736e-31      119.255
     2.42e+08     0.369404  4.05306e-31       119.35
     2.43e+08     0.374084  4.47933e-31      119.445
     2.44e+08     0.378823  4.95042e-31       119.54
     2.45e+08     0.383622  5.47106e-31      119.635
     2.46e+08     0.388482  6.04646e-31       119.73
     2.47e+08     0.393404  6.68237e-31      119.825
     2.48e+08     0.398388  7.38516e-31       119.92
     2.49e+08     0.403435  8.16187e-31      120.016
      2.5e+08     0.408546  9.02026e-31      120.111
     2.51e+08     0.413722  9.96893e-31      120.206
     2.52e+08     0.418963  1.10174e-30      120.302
     2.53e+08     0.424271  1.21761e-30      120.397
     2.54e+08     0.429646  1.34566e-30      120.493
     2.55e+08     0.435089  1.48719e-30      120.589
     2.56e+08     0.440601   1.6436e-30      120.685
     2.57e+08     0.446183  1.81646e-30      120.781
     2.58e+08     0.451836   2.0075e-30      120.877
     2.59e+08      0.45756  2.21863e-30      120.973
      2.6e+08     0.463357  2.45196e-30      121.069
     2.61e+08     0.469227  2.70984e-30      121.165
     2.62e+08     0.475171  2.99483e-30      121.261
     2.63e+08     0.481191   3.3098e-30      121.358
     2.64e+08     0.487287   3.6579e-30      121.454
     2.65e+08     0.493461   4.0426e-30      121.551
     2.66e+08     0.499712  4.46776e-30      121.647
     2.67e+08     0.506043  4.93764e-30      121.744
     2.68e+08     0.512454  5.45694e-30      121.841
     2.69e+08     0.518946  6.03085e-30      121.937
      2.7e+08     0.525521  6.66512e-30      122.034
     2.71e+08     0.532178   7.3661e-30      122.131
     2.72e+08      0.53892   8.1408e-30      122.228
     2.73e+08     0.545748  8.99697e-30      122.325
     2.74e+08     0.552662  9.94319e-30      122.423
     2.75e+08     0.559663  1.09889e-29       122.52
     2.76e+08     0.566754  1.21446e-29      122.617
     2.77e+08     0.573934  1.34219e-29      122.715
     2.78e+08     0.581205  1.48335e-29      122.812
     2.79e+08     0.588568  1.63936e-29       122.91
      2.8e+08     0.596025  1.81177e-29      123.008
     2.81e+08     0.603576  2.00231e-29      123.105
     2.82e+08     0.611222   2.2129e-29      123.203
     2.83e+08     0.618966  2.44563e-29      123.301
     2.84e+08     0.626807  2.70284e-29      123.399
     2.85e+08     0.634748   2.9871e-29      123.497
     2.86e+08      0.64279  3.30126e-29      123.595
     2.87e+08     0.650933  3.64845e-29      123.693
     2.88e+08      0.65918  4.03216e-29      123.792
     2.89e+08     0.667531  4.45623e-29       123.89
      2.9e+08     0.675987   4.9249e-29      123.988
     2.91e+08     0.684551  5.44285e-29      124.087
     2.92e+08     0.693224  6.01528e-29      124.186
     2.93e+08     0.702006  6.64791e-29      124.284
     2.94e+08       0.7109  7.34708e-29      124.383
     2.95e+08     0.719906  8.11978e-29      124.482
     2.96e+08     0.729026  8.97374e-29      124.581
     2.97e+08     0.738262  9.91752e-29       124.68
     2.98e+08     0.747615  1.09606e-28      124.779
     2.99e+08     0.757087  1.21133e-28      124.878
        3e+08     0.766678  1.33873e-28      124.977
     3.01e+08     0.776391  1.47952e-28      125.077
     3.02e+08     0.786227  1.63512e-28      125.176
     3.03e+08     0.796188  1.80709e-28      125.275
     3.04e+08     0.806274  1.99714e-28      125.375
     3.05e+08     0.816489  2.20718e-28      125.475
     3.06e+08     0.826833  2.43932e-28      125.574
     3.07e+08     0.837308  2.69586e-28      125.674
     3.08e+08     0.847915  2.97939e-28      125.774
     3.09e+08     0.858658  3.29273e-28      125.874
      3.1e+08     0.869536  3.63903e-28      125.974
     3.11e+08     0.880552  4.02175e-28      126.074
     3.12e+08     0.891707  4.44472e-28      126.174
     3.13e+08     0.903004  4.91218e-28      126.275
     3.14e+08     0.914444   5.4288e-28      126.375
     3.15e+08     0.926029  5.99975e-28      126.475
     3.16e+08     0.937761  6.63075e-28      126.576
     3.17e+08     0.949641  7.32811e-28      126.676
     3.18e+08     0.961672  8.09882e-28      126.777
     3.19e+08     0.973855  8.95058e-28      126.878
      3.2e+08     0.986193  9.89192e-28      126.979
     3.21e+08     0.998687  1.09323e-27       127.08
     3.22e+08      1.01134   1.2082e-27       127.18
     3.23e+08      1.02415  1.33527e-27      127.282
     3.24e+08      1.03713   1.4757e-27      127.383
     3.25e+08      1.05027   1.6309e-27      127.484
     3.26e+08      1.06357  1.80242e-27      127.585
     3.27e+08      1.07705  1.99199e-27      127.687
     3.28e+08      1.09069  2.20149e-27      127.788
     3.29e+08      1.10451  2.43302e-27       127.89
      3.3e+08       1.1185   2.6889e-27      127.991
     3.31e+08      1.13267   2.9717e-27      128.093
     3.32e+08      1.14702  3.28423e-27      128.195
     3.33e+08      1.16155  3.62964e-27      128.297
     3.34e+08      1.17627  4.01137e-27      128.399
     3.35e+08      1.19117  4.43325e-27      128.501
     3.36e+08      1.20626   4.8995e-27      128.603
     3.37e+08      1.22154  5.41478e-27      128.705
     3.38e+08      1.23702  5.98426e-27      128.807
     3.39e+08      1.25269  6.61363e-27       128.91
      3.4e+08      1.26856  7.30919e-27      129.012
     3.41e+08      1.28463  8.07791e-27      129.114
     3.42e+08      1.30091  8.92747e-27      129.217
     3.43e+08      1.31739  9.86638e-27       129.32
     3.44e+08      1.33408   1.0904e-26      129.423
     3.45e+08      1.35098  1.20508e-26      129.525
     3.46e+08      1.36809  1.33182e-26      129.628
     3.47e+08      1.38542  1.47189e-26      129.731
     3.48e+08      1.40298  1.62669e-26      129.834
     3.49e+08      1.42075  1.79777e-26      129.938
      3.5e+08      1.43875  1.98684e-26      130.041
     3.51e+08      1.45698   2.1958e-26      130.144
     3.52e+08      1.47543  2.42674e-26      130.248
     3.53e+08      1.49413  2.68196e-26      130.351
     3.54e+08      1.51306  2.96402e-26      130.455
     3.55e+08      1.53222  3.27575e-26      130.558
     3.56e+08      1.55164  3.62027e-26      130.662
     3.57e+08      1.57129  4.00101e-26      130.766
     3.58e+08       1.5912   4.4218e-26       130.87
     3.59e+08      1.61136  4.88685e-26      130.974
      3.6e+08      1.63177   5.4008e-26      131.078
     3.61e+08      1.65245  5.96881e-26      131.182
     3.62e+08      1.67338  6.59656e-26      131.286
     3.63e+08      1.69458  7.29032e-26      131.391
     3.64e+08      1.71605  8.05705e-26      131.495
     3.65e+08      1.73779  8.90442e-26        131.6
     3.66e+08       1.7598  9.84091e-26      131.704
     3.67e+08       1.7821  1.08759e-25      131.809
     3.68e+08      1.80468  1.20197e-25      131.913
     3.69e+08      1.82754  1.32838e-25      132.018
      3.7e+08      1.85069  1.46809e-25      132.123
     3.71e+08      1.87414  1.62249e-25      132.228
     3.72e+08      1.89788  1.79313e-25      132.333
     3.73e+08      1.92192  1.98171e-25      132.438
     3.74e+08      1.94627  2.19013e-25      132.544
     3.75e+08      1.97093  2.42047e-25      132.649
     3.76e+08       1.9959  2.67504e-25      132.754
